ALV-5000/E-WIN Data
Date :	"15.03.18"
Time :	"11:44:50"
Samplename : 	""
Temperature [K] :	     298.16000
Viscosity [cp]  :	       0.89454
Refractive Index:	       1.33000
Wavelength [nm] :	     532.00000
Angle [°]       :	      60.00000
Duration [s]    :	        30
Runs            :	         1
Mode            :	"SINGLE AUTO CH0 "
MeanCR0 [kHz]   :	     195.93863
MeanCR1 [kHz]   :	       0.00000

"Correlation"
  2.00000E-004	  4.17216E-001
  4.00000E-004	  4.19997E-001
  6.00000E-004	  4.14767E-001
  8.00000E-004	  4.13202E-001
  1.00000E-003	  4.11290E-001
  1.20000E-003	  4.10207E-001
  1.40000E-003	  4.07470E-001
  1.60000E-003	  4.09489E-001
  1.80000E-003	  4.07462E-001
  2.00000E-003	  4.10753E-001
  2.20000E-003	  4.09427E-001
  2.40000E-003	  4.05838E-001
  2.60000E-003	  4.04658E-001
  2.80000E-003	  4.03150E-001
  3.00000E-003	  4.06548E-001
  3.20000E-003	  4.04121E-001
  3.60000E-003	  4.02342E-001
  4.00000E-003	  3.99588E-001
  4.40000E-003	  3.96494E-001
  4.80000E-003	  3.97680E-001
  5.20000E-003	  3.95651E-001
  5.60000E-003	  3.96088E-001
  6.00000E-003	  3.96632E-001
  6.40000E-003	  3.93174E-001
  7.20000E-003	  3.90932E-001
  8.00000E-003	  3.89722E-001
  8.80000E-003	  3.86784E-001
  9.60000E-003	  3.83177E-001
  1.04000E-002	  3.83643E-001
  1.12000E-002	  3.79416E-001
  1.20000E-002	  3.75989E-001
  1.28000E-002	  3.74108E-001
  1.44000E-002	  3.68657E-001
  1.60000E-002	  3.66247E-001
  1.76000E-002	  3.60531E-001
  1.92000E-002	  3.56823E-001
  2.08000E-002	  3.52816E-001
  2.24000E-002	  3.50934E-001
  2.40000E-002	  3.44476E-001
  2.56000E-002	  3.39913E-001
  2.88000E-002	  3.31983E-001
  3.20000E-002	  3.23625E-001
  3.52000E-002	  3.15183E-001
  3.84000E-002	  3.09519E-001
  4.16000E-002	  3.00664E-001
  4.48000E-002	  2.92943E-001
  4.80000E-002	  2.87313E-001
  5.12000E-002	  2.79385E-001
  5.76000E-002	  2.66882E-001
  6.40000E-002	  2.54251E-001
  7.04000E-002	  2.41935E-001
  7.68000E-002	  2.30053E-001
  8.32000E-002	  2.20193E-001
  8.96000E-002	  2.09928E-001
  9.60000E-002	  1.98903E-001
  1.02400E-001	  1.90231E-001
  1.15200E-001	  1.73035E-001
  1.28000E-001	  1.56458E-001
  1.40800E-001	  1.42101E-001
  1.53600E-001	  1.28873E-001
  1.66400E-001	  1.17178E-001
  1.79200E-001	  1.05542E-001
  1.92000E-001	  9.64605E-002
  2.04800E-001	  8.72132E-002
  2.30400E-001	  7.21622E-002
  2.56000E-001	  5.91738E-002
  2.81600E-001	  4.87863E-002
  3.07200E-001	  4.04536E-002
  3.32800E-001	  3.35574E-002
  3.58400E-001	  2.77196E-002
  3.84000E-001	  2.28815E-002
  4.09600E-001	  1.92736E-002
  4.60800E-001	  1.33849E-002
  5.12000E-001	  9.05376E-003
  5.63200E-001	  5.82507E-003
  6.14400E-001	  4.45776E-003
  6.65600E-001	  3.61819E-003
  7.16800E-001	  3.15275E-003
  7.68000E-001	  2.91213E-003
  8.19200E-001	  1.67274E-003
  9.21600E-001	  7.59663E-004
  1.02400E+000	  1.98045E-004
  1.12640E+000	 -1.14479E-003
  1.22880E+000	 -6.73353E-004
  1.33120E+000	 -3.31897E-004
  1.43360E+000	  3.82849E-004
  1.53600E+000	  3.53936E-004
  1.63840E+000	  6.85017E-004
  1.84320E+000	  1.12253E-003
  2.04800E+000	  1.44880E-003
  2.25280E+000	  6.97158E-004
  2.45760E+000	  1.36659E-003
  2.66240E+000	  9.31137E-004
  2.86720E+000	  7.34834E-004
  3.07200E+000	 -2.76738E-004
  3.22560E+000	  1.50346E-004
  3.63520E+000	 -9.77789E-005
  4.04480E+000	  1.30515E-003
  4.45440E+000	  1.56090E-003
  4.86400E+000	 -7.62324E-004
  5.27360E+000	  5.11588E-004
  5.68320E+000	  1.64314E-003
  6.09280E+000	  1.52806E-004
  6.50240E+000	 -1.93779E-004
  7.32160E+000	  8.25629E-004
  8.14080E+000	  5.68045E-004
  8.96000E+000	  8.52430E-004
  9.77920E+000	 -6.28854E-004
  1.05984E+001	 -8.11518E-004
  1.14176E+001	  9.95176E-004
  1.22368E+001	  3.91617E-004
  1.30560E+001	 -2.98668E-004
  1.46944E+001	 -1.37782E-004
  1.63328E+001	  2.35298E-004
  1.79712E+001	 -2.52652E-004
  1.96096E+001	  8.04246E-005
  2.12480E+001	  4.83743E-005
  2.28864E+001	 -4.13594E-004
  2.45248E+001	  4.82093E-004
  2.61632E+001	  5.40589E-004
  2.94400E+001	  4.29322E-004
  3.27168E+001	 -2.94430E-006
  3.59936E+001	  6.54033E-005
  3.92704E+001	  6.49940E-005
  4.25472E+001	  6.21639E-004
  4.58240E+001	  4.46418E-004
  4.91008E+001	 -1.42070E-005
  5.23776E+001	  1.35753E-004
  5.89312E+001	 -8.89455E-005
  6.54848E+001	 -2.92336E-004
  7.20384E+001	  3.71036E-005
  7.85920E+001	  3.02018E-004
  8.51456E+001	 -3.84472E-004
  9.16992E+001	  2.42092E-004
  9.82528E+001	 -1.90659E-004
  1.04806E+002	  4.83450E-005
  1.17914E+002	 -5.61053E-006
  1.31021E+002	 -4.47352E-004
  1.44128E+002	  9.57507E-006
  1.57235E+002	 -2.70486E-005
  1.70342E+002	 -7.20310E-005
  1.83450E+002	 -1.64996E-004
  1.96557E+002	 -2.24765E-004
  2.09664E+002	 -6.27824E-005
  2.35878E+002	 -5.70988E-005
  2.62093E+002	 -1.69092E-004
  2.88307E+002	 -1.78478E-004
  3.14522E+002	  7.61005E-005
  3.40736E+002	  1.96434E-004
  3.66950E+002	  8.00573E-005
  3.93165E+002	  1.55184E-004
  4.19379E+002	  2.51531E-004
  4.71808E+002	 -4.01357E-005
  5.24237E+002	 -8.34551E-005
  5.76666E+002	 -1.54622E-004
  6.29094E+002	 -7.72778E-005
  6.81523E+002	  1.36867E-004
  7.33952E+002	 -7.41902E-005
  7.86381E+002	 -1.10788E-004
  8.38810E+002	  4.19586E-005
  9.43667E+002	 -1.67070E-004
  1.04852E+003	  1.67316E-004
  1.15338E+003	 -7.35560E-005
  1.25824E+003	  3.33610E-005
  1.36310E+003	 -7.28153E-005
  1.46796E+003	  1.83000E-005
  1.57281E+003	 -6.87107E-005
  1.67767E+003	 -3.96536E-005
  1.88739E+003	  2.49393E-005
  2.09710E+003	 -7.82633E-005
  2.30682E+003	 -6.73320E-005
  2.51653E+003	  7.59293E-006
  2.72625E+003	 -4.12004E-005
  2.93596E+003	 -3.69574E-005
  3.14568E+003	  3.95556E-005
  3.35539E+003	 -2.10767E-005
  3.77482E+003	  3.24371E-005
  4.19425E+003	  1.53841E-005
  4.61368E+003	  2.55460E-005
  5.03311E+003	  2.15497E-005
  5.45254E+003	 -2.94476E-005
  5.87197E+003	  1.34650E-005
  6.29140E+003	  2.28460E-005

"Count Rate"
       0.11719	     202.02209
       0.23438	     195.89297
       0.35156	     193.09303
       0.46875	     202.73915
       0.58594	     199.96483
       0.70313	     197.18196
       0.82031	     208.53535
       0.93750	     192.10281
       1.05469	     188.73949
       1.17188	     201.21968
       1.28906	     188.31267
       1.40625	     202.39769
       1.52344	     193.25523
       1.64063	     194.75763
       1.75781	     194.57837
       1.87500	     195.16737
       1.99219	     185.42737
       2.10938	     187.77487
       2.22656	     193.74181
       2.34375	     194.29666
       2.46094	     194.19423
       2.57813	     194.90276
       2.69531	     197.41245
       2.81250	     195.09909
       2.92969	     198.81241
       3.04688	     184.53104
       3.16406	     195.53444
       3.28125	     192.48695
       3.39844	     195.64542
       3.51563	     197.36124
       3.63281	     183.19083
       3.75000	     192.11989
       3.86719	     195.02226
       3.98438	     206.28175
       4.10156	     198.12950
       4.21875	     199.67459
       4.33594	     198.33438
       4.45313	     209.59387
       4.57031	     193.52840
       4.68750	     197.73683
       4.80469	     208.19391
       4.92188	     194.36496
       5.03906	     198.57339
       5.15625	     204.47205
       5.27344	     195.87590
       5.39063	     189.97725
       5.50781	     199.40143
       5.62500	     192.89670
       5.74219	     198.87218
       5.85938	     196.08931
       5.97656	     184.39445
       6.09375	     206.82808
       6.21094	     201.54405
       6.32813	     193.70766
       6.44531	     195.44908
       6.56250	     201.34772
       6.67969	     194.05765
       6.79688	     190.27603
       6.91406	     193.67351
       7.03125	     190.77113
       7.14844	     201.62088
       7.26563	     205.13788
       7.38281	     193.83571
       7.50000	     192.20525
       7.61719	     201.60382
       7.73438	     189.19191
       7.85156	     186.17003
       7.96875	     203.72937
       8.08594	     193.57961
       8.20313	     194.43324
       8.32031	     194.66373
       8.43750	     194.92836
       8.55469	     201.45869
       8.67188	     189.61020
       8.78906	     197.46367
       8.90625	     191.66747
       9.02344	     200.69896
       9.14063	     198.96606
       9.25781	     204.22449
       9.37500	     195.79053
       9.49219	     187.51878
       9.60938	     203.41353
       9.72656	     184.66762
       9.84375	     199.60629
       9.96094	     200.52823
      10.07813	     201.20261
      10.19531	     199.35875
      10.31250	     199.27338
      10.42969	     186.31514
      10.54688	     191.30893
      10.66406	     190.17360
      10.78125	     203.04646
      10.89844	     192.19672
      11.01563	     205.59885
      11.13281	     204.36960
      11.25000	     200.82700
      11.36719	     188.28705
      11.48438	     197.55757
      11.60156	     194.13448
      11.71875	     196.14053
      11.83594	     213.05965
      11.95313	     193.20401
      12.07031	     197.24171
      12.18750	     203.83180
      12.30469	     200.52823
      12.42188	     202.99524
      12.53906	     189.05533
      12.65625	     186.29808
      12.77344	     192.56378
      12.89063	     198.73558
      13.00781	     189.21751
      13.12500	     195.26128
      13.24219	     203.34523
      13.35938	     187.69804
      13.47656	     199.41850
      13.59375	     204.17326
      13.71094	     194.79178
      13.82813	     196.54173
      13.94531	     195.67957
      14.06250	     188.18462
      14.17969	     192.11136
      14.29688	     193.04182
      14.41406	     198.98314
      14.53125	     184.22374
      14.64844	     200.89529
      14.76563	     191.43698
      14.88281	     196.93442
      15.00000	     216.27786
      15.11719	     200.42580
      15.23438	     203.55864
      15.35156	     206.33298
      15.46875	     192.29915
      15.58594	     192.80280
      15.70313	     196.14906
      15.82031	     186.98099
      15.93750	     193.78448
      16.05469	     196.24297
      16.17188	     191.73575
      16.28906	     184.59079
      16.40625	     184.82127
      16.52344	     203.14037
      16.64063	     202.30380
      16.75781	     192.09428
      16.87500	     197.97585
      16.99219	     194.75763
      17.10938	     187.15172
      17.22656	     198.34291
      17.34375	     203.87450
      17.46094	     191.63332
      17.57813	     189.96019
      17.69531	     195.50031
      17.81250	     194.48447
      17.92969	     194.95396
      18.04688	     197.36124
      18.16406	     209.36339
      18.28125	     188.80777
      18.39844	     195.10762
      18.51563	     193.07596
      18.63281	     203.93425
      18.75000	     193.44302
      18.86719	     190.48090
      18.98438	     208.88535
      19.10156	     203.29402
      19.21875	     209.26949
      19.33594	     192.04306
      19.45313	     198.39413
      19.57031	     193.63083
      19.68750	     195.57712
      19.80469	     192.10281
      19.92188	     201.18553
      20.03906	     187.58707
      20.15625	     186.52855
      20.27344	     202.16722
      20.39063	     186.82733
      20.50781	     188.38095
      20.62500	     192.50403
      20.74219	     201.67210
      20.85938	     201.21114
      20.97656	     186.67368
      21.09375	     188.97850
      21.21094	     195.94418
      21.32813	     189.04678
      21.44531	     186.87001
      21.56250	     197.31001
      21.67969	     201.62943
      21.79688	     191.36868
      21.91406	     187.22855
      22.03125	     198.12950
      22.14844	     190.50652
      22.26563	     196.77222
      22.38281	     188.67973
      22.50000	     190.47237
      22.61719	     192.02599
      22.73438	     202.76476
      22.85156	     199.99898
      22.96875	     188.34680
      23.08594	     195.24420
      23.20313	     199.02582
      23.32031	     202.62817
      23.43750	     190.09677
      23.55469	     191.01869
      23.67188	     205.12933
      23.78906	     201.30504
      23.90625	     196.55881
      24.02344	     201.28796
      24.14063	     197.41245
      24.25781	     205.59030
      24.37500	     196.12346
      24.49219	     191.64185
      24.60938	     203.56718
      24.72656	     187.51024
      24.84375	     188.82484
      24.96094	     193.00768
      25.07813	     194.56129
      25.19531	     194.80031
      25.31250	     185.92247
      25.42969	     212.35112
      25.54688	     193.74181
      25.66406	     192.24794
      25.78125	     192.16257
      25.89844	     196.26004
      26.01563	     186.13588
      26.13281	     187.00659
      26.25000	     207.68172
      26.36719	     194.46739
      26.48438	     202.95256
      26.60156	     202.48306
      26.71875	     204.19887
      26.83594	     187.29683
      26.95313	     205.85493
      27.07031	     186.75050
      27.18750	     197.16489
      27.30469	     206.95613
      27.42188	     194.94543
      27.53906	     196.16614
      27.65625	     197.11368
      27.77344	     201.63795
      27.89063	     195.01372
      28.00781	     202.37209
      28.12500	     200.66481
      28.24219	     187.65536
      28.35938	     195.18445
      28.47656	     190.43822
      28.59375	     199.34167
      28.71094	     190.77968
      28.82813	     191.16382
      28.94531	     189.29434
      29.06250	     202.72208
      29.17969	     195.05641
      29.29688	     192.99060
      29.41406	     184.01033
      29.53125	     208.81706
      29.64844	     205.80371
      29.76563	     189.15776
      29.88281	     197.74536
