ALV-5000/E-WIN Data
Date :	"15.03.18"
Time :	"11:34:06"
Samplename : 	""
Temperature [K] :	     298.16000
Viscosity [cp]  :	       0.89454
Refractive Index:	       1.33000
Wavelength [nm] :	     532.00000
Angle [°]       :	      60.00000
Duration [s]    :	        30
Runs            :	         1
Mode            :	"SINGLE AUTO CH0 "
MeanCR0 [kHz]   :	      46.13897
MeanCR1 [kHz]   :	       0.00000

"Correlation"
  2.00000E-004	  5.74590E-001
  4.00000E-004	  5.78270E-001
  6.00000E-004	  5.64831E-001
  8.00000E-004	  5.77630E-001
  1.00000E-003	  5.46351E-001
  1.20000E-003	  5.42911E-001
  1.40000E-003	  5.46031E-001
  1.60000E-003	  5.55631E-001
  1.80000E-003	  5.49551E-001
  2.00000E-003	  5.41311E-001
  2.20000E-003	  5.40591E-001
  2.40000E-003	  5.59791E-001
  2.60000E-003	  5.57871E-001
  2.80000E-003	  5.35872E-001
  3.00000E-003	  5.42271E-001
  3.20000E-003	  5.48871E-001
  3.60000E-003	  5.48871E-001
  4.00000E-003	  5.42991E-001
  4.40000E-003	  5.39952E-001
  4.80000E-003	  5.54671E-001
  5.20000E-003	  5.42151E-001
  5.60000E-003	  5.50271E-001
  6.00000E-003	  5.45111E-001
  6.40000E-003	  5.35154E-001
  7.20000E-003	  5.43754E-001
  8.00000E-003	  5.43894E-001
  8.80000E-003	  5.38394E-001
  9.60000E-003	  5.32994E-001
  1.04000E-002	  5.31434E-001
  1.12000E-002	  5.39514E-001
  1.20000E-002	  5.24354E-001
  1.28000E-002	  5.28022E-001
  1.44000E-002	  5.29252E-001
  1.60000E-002	  5.28162E-001
  1.76000E-002	  5.18592E-001
  1.92000E-002	  5.27492E-001
  2.08000E-002	  5.12472E-001
  2.24000E-002	  5.19242E-001
  2.40000E-002	  5.10032E-001
  2.56000E-002	  5.12103E-001
  2.88000E-002	  5.05369E-001
  3.20000E-002	  5.04419E-001
  3.52000E-002	  4.98919E-001
  3.84000E-002	  4.93283E-001
  4.16000E-002	  4.90298E-001
  4.48000E-002	  4.89488E-001
  4.80000E-002	  4.84489E-001
  5.12000E-002	  4.76194E-001
  5.76000E-002	  4.70171E-001
  6.40000E-002	  4.60782E-001
  7.04000E-002	  4.53905E-001
  7.68000E-002	  4.45013E-001
  8.32000E-002	  4.39120E-001
  8.96000E-002	  4.30203E-001
  9.60000E-002	  4.25500E-001
  1.02400E-001	  4.15536E-001
  1.15200E-001	  4.03124E-001
  1.28000E-001	  3.88706E-001
  1.40800E-001	  3.74362E-001
  1.53600E-001	  3.60398E-001
  1.66400E-001	  3.48842E-001
  1.79200E-001	  3.36033E-001
  1.92000E-001	  3.26017E-001
  2.04800E-001	  3.13057E-001
  2.30400E-001	  2.92796E-001
  2.56000E-001	  2.72937E-001
  2.81600E-001	  2.54614E-001
  3.07200E-001	  2.37941E-001
  3.32800E-001	  2.23261E-001
  3.58400E-001	  2.09696E-001
  3.84000E-001	  1.94582E-001
  4.09600E-001	  1.80850E-001
  4.60800E-001	  1.57332E-001
  5.12000E-001	  1.36294E-001
  5.63200E-001	  1.18603E-001
  6.14400E-001	  1.03938E-001
  6.65600E-001	  9.11884E-002
  7.16800E-001	  7.91718E-002
  7.68000E-001	  6.77767E-002
  8.19200E-001	  5.83624E-002
  9.21600E-001	  4.29418E-002
  1.02400E+000	  3.22789E-002
  1.12640E+000	  2.42451E-002
  1.22880E+000	  1.71879E-002
  1.33120E+000	  1.27846E-002
  1.43360E+000	  1.05513E-002
  1.53600E+000	  8.22236E-003
  1.63840E+000	  6.13966E-003
  1.84320E+000	  3.46595E-003
  2.04800E+000	  1.70805E-003
  2.25280E+000	  2.27603E-004
  2.45760E+000	 -2.04675E-003
  2.66240E+000	 -2.41585E-003
  2.86720E+000	 -2.83956E-003
  3.07200E+000	 -2.77064E-003
  3.22560E+000	 -6.20435E-004
  3.63520E+000	  3.00224E-003
  4.04480E+000	  4.21061E-003
  4.45440E+000	  1.60843E-003
  4.86400E+000	  2.21166E-003
  5.27360E+000	  3.26641E-003
  5.68320E+000	 -2.39953E-004
  6.09280E+000	 -3.22238E-003
  6.50240E+000	 -9.49236E-004
  7.32160E+000	  5.56543E-004
  8.14080E+000	 -7.28204E-004
  8.96000E+000	 -1.36195E-003
  9.77920E+000	 -1.98840E-003
  1.05984E+001	 -9.99163E-004
  1.14176E+001	 -2.07652E-003
  1.22368E+001	 -3.05469E-003
  1.30560E+001	 -1.74291E-003
  1.46944E+001	 -5.65779E-004
  1.63328E+001	 -1.16761E-003
  1.79712E+001	 -3.16728E-004
  1.96096E+001	 -1.28305E-003
  2.12480E+001	  1.15462E-004
  2.28864E+001	 -1.86157E-003
  2.45248E+001	  3.21702E-004
  2.61632E+001	 -6.50170E-004
  2.94400E+001	 -1.54908E-003
  3.27168E+001	 -1.55775E-003
  3.59936E+001	 -3.60377E-003
  3.92704E+001	 -7.10034E-004
  4.25472E+001	 -2.79104E-004
  4.58240E+001	  1.48538E-003
  4.91008E+001	 -1.12065E-003
  5.23776E+001	  1.16325E-004
  5.89312E+001	 -1.08260E-003
  6.54848E+001	  9.42499E-005
  7.20384E+001	 -6.07947E-004
  7.85920E+001	 -1.01846E-003
  8.51456E+001	 -1.23459E-003
  9.16992E+001	 -4.68560E-004
  9.82528E+001	  2.17787E-004
  1.04806E+002	 -1.10324E-005
  1.17914E+002	 -4.04091E-005
  1.31021E+002	  4.36369E-004
  1.44128E+002	  1.13528E-003
  1.57235E+002	  2.68354E-004
  1.70342E+002	 -5.61800E-004
  1.83450E+002	 -4.53022E-004
  1.96557E+002	 -2.27582E-004
  2.09664E+002	  1.75356E-005
  2.35878E+002	  9.35410E-005
  2.62093E+002	 -1.97270E-004
  2.88307E+002	 -3.81211E-004
  3.14522E+002	  3.85164E-004
  3.40736E+002	 -7.19595E-004
  3.66950E+002	  9.55863E-004
  3.93165E+002	 -4.93680E-005
  4.19379E+002	  5.24650E-004
  4.71808E+002	  3.19291E-004
  5.24237E+002	 -2.94083E-004
  5.76666E+002	  6.35307E-004
  6.29094E+002	 -7.76393E-005
  6.81523E+002	  1.93554E-004
  7.33952E+002	  9.17679E-005
  7.86381E+002	  4.02217E-005
  8.38810E+002	 -6.42421E-005
  9.43667E+002	  3.75668E-004
  1.04852E+003	 -2.90118E-005
  1.15338E+003	 -1.58753E-004
  1.25824E+003	  2.64477E-005
  1.36310E+003	 -2.28189E-004
  1.46796E+003	  2.22540E-004
  1.57281E+003	  3.10315E-004
  1.67767E+003	 -3.49772E-005
  1.88739E+003	  9.39260E-006
  2.09710E+003	  2.20721E-004
  2.30682E+003	 -2.22152E-004
  2.51653E+003	 -9.32408E-005
  2.72625E+003	 -2.79339E-005
  2.93596E+003	  9.78629E-006
  3.14568E+003	 -2.71829E-005
  3.35539E+003	 -3.18175E-005
  3.77482E+003	 -2.40605E-005
  4.19425E+003	  1.85541E-005
  4.61368E+003	 -1.11755E-004
  5.03311E+003	  4.23610E-005
  5.45254E+003	  3.96317E-005
  5.87197E+003	 -1.37814E-004
  6.29140E+003	  5.44686E-005

"Count Rate"
       0.11719	      43.45020
       0.23438	      45.25138
       0.35156	      45.60991
       0.46875	      44.93553
       0.58594	      45.77210
       0.70313	      46.83061
       0.82031	      47.96595
       0.93750	      44.03921
       1.05469	      45.32821
       1.17188	      46.75378
       1.28906	      46.02819
       1.40625	      44.90992
       1.52344	      45.68673
       1.64063	      50.15980
       1.75781	      47.53059
       1.87500	      43.89409
       1.99219	      46.66842
       2.10938	      46.83915
       2.22656	      44.01360
       2.34375	      43.40752
       2.46094	      47.15499
       2.57813	      44.94407
       2.69531	      45.02090
       2.81250	      52.75486
       2.92969	      43.78312
       3.04688	      47.33426
       3.16406	      49.70737
       3.28125	      51.03905
       3.39844	      44.83310
       3.51563	      41.36732
       3.63281	      48.40984
       3.75000	      47.95741
       3.86719	      50.15980
       3.98438	      44.01360
       4.10156	      45.79771
       4.21875	      45.55869
       4.33594	      48.44399
       4.45313	      45.87453
       4.57031	      45.34528
       4.68750	      46.25867
       4.80469	      48.69154
       4.92188	      46.81354
       5.03906	      42.81851
       5.15625	      46.91597
       5.27344	      45.56723
       5.39063	      50.26224
       5.50781	      49.28909
       5.62500	      45.84893
       5.74219	      50.20248
       5.85938	      44.61115
       5.97656	      44.69651
       6.09375	      45.49040
       6.21094	      47.65010
       6.32813	      48.86227
       6.44531	      44.53432
       6.56250	      44.55993
       6.67969	      45.69527
       6.79688	      51.20977
       6.91406	      44.79895
       7.03125	      48.99031
       7.14844	      49.33177
       7.26563	      44.59408
       7.38281	      47.89766
       7.50000	      45.66966
       7.61719	      47.94034
       7.73438	      47.55620
       7.85156	      46.74525
       7.96875	      45.78064
       8.08594	      42.42583
       8.20313	      42.73315
       8.32031	      47.32572
       8.43750	      47.33426
       8.55469	      46.70256
       8.67188	      45.73795
       8.78906	      47.90620
       8.90625	      48.87081
       9.02344	      49.17812
       9.14063	      42.75875
       9.25781	      48.82813
       9.37500	      49.28055
       9.49219	      47.01841
       9.60938	      45.72942
       9.72656	      47.38548
       9.84375	      50.44150
       9.96094	      43.33923
      10.07813	      46.52330
      10.19531	      42.45998
      10.31250	      48.77691
      10.42969	      43.57825
      10.54688	      42.63071
      10.66406	      48.53789
      10.78125	      47.09524
      10.89844	      48.99885
      11.01563	      45.48186
      11.13281	      40.38564
      11.25000	      41.45269
      11.36719	      42.63924
      11.48438	      44.74773
      11.60156	      44.97821
      11.71875	      43.85141
      11.83594	      46.53184
      11.95313	      45.93429
      12.07031	      38.44788
      12.18750	      41.71732
      12.30469	      48.46960
      12.42188	      45.96843
      12.53906	      50.07444
      12.65625	      43.25386
      12.77344	      44.54286
      12.89063	      47.12085
      13.00781	      48.59764
      13.12500	      41.32464
      13.24219	      46.44647
      13.35938	      43.56118
      13.47656	      49.72445
      13.59375	      45.96843
      13.71094	      45.27699
      13.82813	      47.35987
      13.94531	      42.69900
      14.06250	      45.18309
      14.17969	      42.48559
      14.29688	      47.43670
      14.41406	      45.84893
      14.53125	      48.17936
      14.64844	      47.81229
      14.76563	      41.31610
      14.88281	      47.68425
      15.00000	      45.99405
      15.11719	      50.79149
      15.23438	      44.90139
      15.35156	      47.53913
      15.46875	      42.73315
      15.58594	      49.38299
      15.70313	      45.49040
      15.82031	      44.79895
      15.93750	      43.60386
      16.05469	      44.92699
      16.17188	      47.18914
      16.28906	      43.17704
      16.40625	      46.85622
      16.52344	      44.60262
      16.64063	      40.58198
      16.75781	      47.47084
      16.87500	      44.44042
      16.99219	      47.46230
      17.10938	      46.65988
      17.22656	      45.31113
      17.34375	      46.41233
      17.46094	      45.71235
      17.57813	      47.12938
      17.69531	      48.67447
      17.81250	      43.53556
      17.92969	      47.65864
      18.04688	      46.37818
      18.16406	      46.54891
      18.28125	      45.90868
      18.39844	      44.65383
      18.51563	      49.63908
      18.63281	      49.51957
      18.75000	      48.38423
      18.86719	      46.07087
      18.98438	      50.62930
      19.10156	      45.59283
      19.21875	      47.01841
      19.33594	      46.64281
      19.45313	      45.90014
      19.57031	      47.47937
      19.68750	      46.07941
      19.80469	      46.34404
      19.92188	      48.83666
      20.03906	      42.85265
      20.15625	      46.86476
      20.27344	      45.11480
      20.39063	      43.36484
      20.50781	      47.13792
      20.62500	      45.20016
      20.74219	      42.23803
      20.85938	      46.07087
      20.97656	      46.62574
      21.09375	      43.11728
      21.21094	      43.38191
      21.32813	      49.28909
      21.44531	      46.40379
      21.56250	      43.99653
      21.67969	      43.08314
      21.79688	      49.76713
      21.91406	      46.06234
      22.03125	      43.77459
      22.14844	      49.42567
      22.26563	      45.90868
      22.38281	      41.41000
      22.50000	      41.06855
      22.61719	      41.91365
      22.73438	      44.82456
      22.85156	      47.81229
      22.96875	      43.98800
      23.08594	      45.95990
      23.20313	      47.01841
      23.32031	      48.43545
      23.43750	      46.02819
      23.55469	      45.43064
      23.67188	      50.48418
      23.78906	      45.88307
      23.90625	      43.33923
      24.02344	      45.60137
      24.14063	      47.25743
      24.25781	      49.69030
      24.37500	      44.17579
      24.49219	      43.37337
      24.60938	      43.69776
      24.72656	      50.15126
      24.84375	      47.83790
      24.96094	      44.89285
      25.07813	      47.90620
      25.19531	      46.51476
      25.31250	      46.93305
      25.42969	      43.71483
      25.54688	      43.04045
      25.66406	      43.09167
      25.78125	      48.64886
      25.89844	      44.92699
      26.01563	      48.44399
      26.13281	      44.22701
      26.25000	      43.18557
      26.36719	      48.73422
      26.48438	      47.98302
      26.60156	      49.28055
      26.71875	      45.78917
      26.83594	      50.95369
      26.95313	      46.08794
      27.07031	      46.34404
      27.18750	      45.51601
      27.30469	      47.69278
      27.42188	      48.16228
      27.53906	      46.98426
      27.65625	      46.87329
      27.77344	      46.14770
      27.89063	      50.77442
      28.00781	      38.53325
      28.12500	      46.28428
      28.24219	      49.13543
      28.35938	      46.56598
      28.47656	      48.40984
      28.59375	      48.69154
      28.71094	      47.32572
      28.82813	      48.57203
      28.94531	      47.74400
      29.06250	      43.36484
      29.17969	      46.29282
      29.29688	      43.80873
      29.41406	      50.59516
      29.53125	      47.25743
      29.64844	      51.66220
      29.76563	      43.83434
      29.88281	      45.25991
