ALV-5000/E-WIN Data
Date :	"11.09.17"
Time :	"14:10:34"
Samplename : 	""
Temperature [K] :	     298.16000
Viscosity [cp]  :	       0.89454
Refractive Index:	       1.33000
Wavelength [nm] :	     532.00000
Angle [°]       :	      80.00000
Duration [s]    :	        30
Runs            :	         1
Mode            :	"SINGLE AUTO CH0"
MeanCR0 [kHz]   :	     124.16869
MeanCR1 [kHz]   :	       0.00000

"Correlation"
  2.00000E-004	  4.35878E-001
  4.00000E-004	  4.35388E-001
  6.00000E-004	  4.50198E-001
  8.00000E-004	  4.38633E-001
  1.00000E-003	  4.16015E-001
  1.20000E-003	  4.24095E-001
  1.40000E-003	  4.41094E-001
  1.60000E-003	  4.35181E-001
  1.80000E-003	  4.13945E-001
  2.00000E-003	  4.20153E-001
  2.20000E-003	  4.34005E-001
  2.40000E-003	  4.19369E-001
  2.60000E-003	  4.21264E-001
  2.80000E-003	  4.26425E-001
  3.00000E-003	  4.28494E-001
  3.20000E-003	  4.17162E-001
  3.60000E-003	  4.29533E-001
  4.00000E-003	  4.12779E-001
  4.40000E-003	  4.24339E-001
  4.80000E-003	  4.15268E-001
  5.20000E-003	  4.18165E-001
  5.60000E-003	  4.18709E-001
  6.00000E-003	  4.13003E-001
  6.40000E-003	  4.12303E-001
  7.20000E-003	  4.08127E-001
  8.00000E-003	  4.07264E-001
  8.80000E-003	  4.06823E-001
  9.60000E-003	  3.99336E-001
  1.04000E-002	  4.01805E-001
  1.12000E-002	  3.99045E-001
  1.20000E-002	  3.97542E-001
  1.28000E-002	  3.93881E-001
  1.44000E-002	  3.89593E-001
  1.60000E-002	  3.84722E-001
  1.76000E-002	  3.79746E-001
  1.92000E-002	  3.77730E-001
  2.08000E-002	  3.70250E-001
  2.24000E-002	  3.67726E-001
  2.40000E-002	  3.63393E-001
  2.56000E-002	  3.58779E-001
  2.88000E-002	  3.50318E-001
  3.20000E-002	  3.41642E-001
  3.52000E-002	  3.32742E-001
  3.84000E-002	  3.26816E-001
  4.16000E-002	  3.20231E-001
  4.48000E-002	  3.12762E-001
  4.80000E-002	  3.04592E-001
  5.12000E-002	  2.97823E-001
  5.76000E-002	  2.86028E-001
  6.40000E-002	  2.73650E-001
  7.04000E-002	  2.59276E-001
  7.68000E-002	  2.48408E-001
  8.32000E-002	  2.36703E-001
  8.96000E-002	  2.25562E-001
  9.60000E-002	  2.16410E-001
  1.02400E-001	  2.06440E-001
  1.15200E-001	  1.88884E-001
  1.28000E-001	  1.71816E-001
  1.40800E-001	  1.56635E-001
  1.53600E-001	  1.43430E-001
  1.66400E-001	  1.30537E-001
  1.79200E-001	  1.19240E-001
  1.92000E-001	  1.09392E-001
  2.04800E-001	  9.97697E-002
  2.30400E-001	  8.34194E-002
  2.56000E-001	  6.90875E-002
  2.81600E-001	  5.75693E-002
  3.07200E-001	  4.81901E-002
  3.32800E-001	  4.07555E-002
  3.58400E-001	  3.33624E-002
  3.84000E-001	  2.78088E-002
  4.09600E-001	  2.26933E-002
  4.60800E-001	  1.58797E-002
  5.12000E-001	  1.05874E-002
  5.63200E-001	  7.09135E-003
  6.14400E-001	  5.99544E-003
  6.65600E-001	  5.32826E-003
  7.16800E-001	  4.40059E-003
  7.68000E-001	  4.45080E-003
  8.19200E-001	  4.08690E-003
  9.21600E-001	  2.91439E-003
  1.02400E+000	  2.41026E-003
  1.12640E+000	  9.20357E-004
  1.22880E+000	  1.78595E-004
  1.33120E+000	 -6.87279E-004
  1.43360E+000	 -3.98065E-004
  1.53600E+000	 -3.51602E-004
  1.63840E+000	  2.58719E-004
  1.84320E+000	  9.95815E-004
  2.04800E+000	  3.33762E-004
  2.25280E+000	 -1.53713E-003
  2.45760E+000	 -7.56319E-004
  2.66240E+000	 -2.42270E-004
  2.86720E+000	  6.90121E-004
  3.07200E+000	  8.88372E-004
  3.22560E+000	  7.54401E-004
  3.63520E+000	 -1.19438E-004
  4.04480E+000	 -5.69779E-004
  4.45440E+000	 -4.51381E-004
  4.86400E+000	 -1.03180E-003
  5.27360E+000	  6.96105E-004
  5.68320E+000	  1.39179E-003
  6.09280E+000	 -4.30098E-005
  6.50240E+000	 -4.61564E-006
  7.32160E+000	  6.20154E-005
  8.14080E+000	 -5.20653E-004
  8.96000E+000	  1.99235E-003
  9.77920E+000	  1.22382E-003
  1.05984E+001	  4.82900E-004
  1.14176E+001	  1.75460E-004
  1.22368E+001	  1.15353E-004
  1.30560E+001	  4.30858E-004
  1.46944E+001	 -8.24445E-004
  1.63328E+001	 -6.89304E-004
  1.79712E+001	 -3.92328E-004
  1.96096E+001	 -2.03628E-004
  2.12480E+001	  2.54762E-004
  2.28864E+001	  1.70536E-004
  2.45248E+001	  4.20868E-004
  2.61632E+001	 -8.28635E-005
  2.94400E+001	 -6.17887E-004
  3.27168E+001	 -5.87667E-004
  3.59936E+001	  7.51577E-005
  3.92704E+001	 -4.02567E-004
  4.25472E+001	 -9.08211E-004
  4.58240E+001	 -7.11356E-004
  4.91008E+001	 -7.34434E-004
  5.23776E+001	 -5.35168E-004
  5.89312E+001	  5.48872E-004
  6.54848E+001	 -1.28315E-004
  7.20384E+001	 -2.25252E-005
  7.85920E+001	  3.98918E-004
  8.51456E+001	  4.49261E-004
  9.16992E+001	 -1.39444E-004
  9.82528E+001	 -2.38307E-004
  1.04806E+002	  1.64103E-004
  1.17914E+002	 -1.90654E-004
  1.31021E+002	 -1.99597E-004
  1.44128E+002	 -9.69592E-005
  1.57235E+002	  1.69268E-004
  1.70342E+002	 -4.44466E-005
  1.83450E+002	  2.60627E-007
  1.96557E+002	  1.94659E-004
  2.09664E+002	  1.14402E-004
  2.35878E+002	  2.77870E-005
  2.62093E+002	  1.88384E-004
  2.88307E+002	  9.90808E-005
  3.14522E+002	 -1.34681E-004
  3.40736E+002	 -1.34423E-004
  3.66950E+002	  8.22772E-006
  3.93165E+002	 -5.09076E-004
  4.19379E+002	 -3.36233E-004
  4.71808E+002	 -1.80129E-004
  5.24237E+002	 -2.48739E-004
  5.76666E+002	 -1.65842E-005
  6.29094E+002	  9.36426E-005
  6.81523E+002	  4.83161E-005
  7.33952E+002	 -1.62167E-005
  7.86381E+002	 -4.54824E-005
  8.38810E+002	  4.54958E-005
  9.43667E+002	  2.08946E-005
  1.04852E+003	  3.45590E-005
  1.15338E+003	  1.45153E-005
  1.25824E+003	  3.63124E-006
  1.36310E+003	  6.59527E-005
  1.46796E+003	 -9.83823E-005
  1.57281E+003	  5.98573E-005
  1.67767E+003	 -1.37631E-006
  1.88739E+003	  7.38432E-005
  2.09710E+003	 -5.37162E-005
  2.30682E+003	 -4.70650E-005
  2.51653E+003	  2.43439E-005
  2.72625E+003	  7.44006E-006
  2.93596E+003	  4.09517E-006
  3.14568E+003	 -2.38173E-005
  3.35539E+003	  1.93762E-005
  3.77482E+003	  2.32009E-005
  4.19425E+003	 -4.94855E-007
  4.61368E+003	 -6.38831E-005
  5.03311E+003	 -2.08370E-005
  5.45254E+003	  4.22100E-005
  5.87197E+003	 -3.02738E-005
  6.29140E+003	 -4.13354E-005

"Count Rate"
       0.11719	     121.37033
       0.23438	     124.24709
       0.35156	     128.63480
       0.46875	     121.95934
       0.58594	     124.07636
       0.70313	     124.30685
       0.82031	     129.33478
       0.93750	     124.32391
       1.05469	     120.45693
       1.17188	     130.58109
       1.28906	     130.29085
       1.40625	     126.77386
       1.52344	     126.04826
       1.64063	     122.53981
       1.75781	     121.85690
       1.87500	     123.98246
       1.99219	     125.62144
       2.10938	     124.76781
       2.22656	     120.07280
       2.34375	     119.08257
       2.46094	     121.60081
       2.57813	     125.73242
       2.69531	     121.91666
       2.81250	     126.01412
       2.92969	     127.85798
       3.04688	     121.15692
       3.16406	     124.06783
       3.28125	     119.96182
       3.39844	     123.49589
       3.51563	     120.28621
       3.63281	     127.22629
       3.75000	     123.63247
       3.86719	     124.05075
       3.98438	     123.82027
       4.10156	     125.88608
       4.21875	     122.20689
       4.33594	     120.23499
       4.45313	     125.48486
       4.57031	     122.65079
       4.68750	     123.29102
       4.80469	     125.57877
       4.92188	     125.06658
       5.03906	     124.11904
       5.15625	     126.81654
       5.27344	     117.59724
       5.39063	     124.35806
       5.50781	     128.13115
       5.62500	     130.34207
       5.74219	     121.60081
       5.85938	     126.04826
       5.97656	     127.90067
       6.09375	     122.19836
       6.21094	     122.91541
       6.32813	     119.68866
       6.44531	     123.35077
       6.56250	     124.27270
       6.67969	     120.84961
       6.79688	     119.21062
       6.91406	     126.47508
       7.03125	     124.84464
       7.14844	     122.35201
       7.26563	     127.12385
       7.38281	     118.97160
       7.50000	     128.77991
       7.61719	     124.02515
       7.73438	     123.03492
       7.85156	     129.52257
       7.96875	     120.20084
       8.08594	     124.18733
       8.20313	     130.58109
       8.32031	     121.31057
       8.43750	     121.27643
       8.55469	     126.74825
       8.67188	     125.80925
       8.78906	     130.35915
       8.90625	     129.35185
       9.02344	     125.83485
       9.14063	     129.95793
       9.25781	     128.21651
       9.37500	     119.79110
       9.49219	     126.00558
       9.60938	     120.67034
       9.72656	     126.53484
       9.84375	     120.34596
       9.96094	     128.48114
      10.07813	     116.01801
      10.19531	     124.63123
      10.31250	     123.88003
      10.42969	     129.24088
      10.54688	     127.07263
      10.66406	     129.87257
      10.78125	     122.59956
      10.89844	     121.57520
      11.01563	     126.07388
      11.13281	     121.01180
      11.25000	     125.56169
      11.36719	     117.87894
      11.48438	     129.06161
      11.60156	     119.63744
      11.71875	     136.45412
      11.83594	     122.20689
      11.95313	     121.75446
      12.07031	     126.96166
      12.18750	     123.12882
      12.30469	     125.66413
      12.42188	     121.66056
      12.53906	     127.41409
      12.65625	     125.59584
      12.77344	     128.97624
      12.89063	     126.91898
      13.00781	     127.16653
      13.12500	     118.56186
      13.24219	     120.65327
      13.35938	     125.85193
      13.47656	     127.27750
      13.59375	     124.70805
      13.71094	     121.43862
      13.82813	     122.44592
      13.94531	     115.38632
      14.06250	     122.91541
      14.17969	     129.71037
      14.29688	     124.40928
      14.41406	     126.10802
      14.53125	     130.40182
      14.64844	     123.42760
      14.76563	     122.02763
      14.88281	     122.15568
      15.00000	     124.08490
      15.11719	     124.46903
      15.23438	     123.29955
      15.35156	     123.01785
      15.46875	     124.99829
      15.58594	     117.56310
      15.70313	     130.02621
      15.82031	     127.62749
      15.93750	     120.75571
      16.05469	     127.14946
      16.17188	     119.12526
      16.28906	     123.30809
      16.40625	     125.65559
      16.52344	     125.99705
      16.64063	     115.27534
      16.75781	     120.71303
      16.87500	     116.31679
      16.99219	     125.65559
      17.10938	     125.23731
      17.22656	     127.33726
      17.34375	     123.11175
      17.46094	     128.50674
      17.57813	     121.78008
      17.69531	     123.17150
      17.81250	     120.43133
      17.92969	     120.65327
      18.04688	     127.02995
      18.16406	     122.94102
      18.28125	     125.76656
      18.39844	     129.18965
      18.51563	     120.86668
      18.63281	     117.09360
      18.75000	     118.68990
      18.86719	     118.20333
      18.98438	     120.87521
      19.10156	     135.65170
      19.21875	     123.99953
      19.33594	     129.08722
      19.45313	     117.93016
      19.57031	     118.28016
      19.68750	     119.39842
      19.80469	     124.46049
      19.92188	     125.57023
      20.03906	     128.50674
      20.15625	     127.46531
      20.27344	     121.47276
      20.39063	     120.93497
      20.50781	     124.86171
      20.62500	     123.53857
      20.74219	     132.42494
      20.85938	     123.53857
      20.97656	     123.58125
      21.09375	     130.78596
      21.21094	     121.05448
      21.32813	     129.49696
      21.44531	     121.75446
      21.56250	     122.07031
      21.67969	     121.05448
      21.79688	     134.83221
      21.91406	     121.90812
      22.03125	     122.22397
      22.14844	     114.10587
      22.26563	     119.64598
      22.38281	     126.44094
      22.50000	     128.44699
      22.61719	     127.33726
      22.73438	     124.03368
      22.85156	     127.17507
      22.96875	     119.89353
      23.08594	     124.23856
      23.20313	     126.01412
      23.32031	     126.96166
      23.43750	     128.72015
      23.55469	     122.41177
      23.67188	     123.70930
      23.78906	     116.41069
      23.90625	     121.37886
      24.02344	     127.63603
      24.14063	     120.33743
      24.25781	     122.21543
      24.37500	     127.43970
      24.49219	     124.15319
      24.60938	     123.91417
      24.72656	     125.46779
      24.84375	     120.05573
      24.96094	     123.92271
      25.07813	     125.46779
      25.19531	     124.57147
      25.31250	     126.02266
      25.42969	     128.87381
      25.54688	     123.58979
      25.66406	     123.95686
      25.78125	     119.35574
      25.89844	     125.18609
      26.01563	     120.62766
      26.13281	     123.24833
      26.25000	     123.04346
      26.36719	     122.81297
      26.48438	     131.87009
      26.60156	     132.97981
      26.71875	     126.95313
      26.83594	     124.05075
      26.95313	     128.38724
      27.07031	     121.30203
      27.18750	     120.29475
      27.30469	     124.31538
      27.42188	     125.39097
      27.53906	     120.11548
      27.65625	     126.21899
      27.77344	     126.97873
      27.89063	     128.17383
      28.00781	     132.71518
      28.12500	     122.33494
      28.24219	     122.31786
      28.35938	     117.94724
      28.47656	     121.56667
      28.59375	     129.16405
      28.71094	     126.03120
      28.82813	     119.41550
      28.94531	     124.98122
      29.06250	     120.96912
      29.17969	     122.89834
      29.29688	     124.13612
      29.41406	     127.79823
      29.53125	     120.58498
      29.64844	     119.21062
      29.76563	     116.23142
      29.88281	     124.63123
