ALV-5000/E-WIN Data
Date :	"15.03.18"
Time :	"11:56:58"
Samplename : 	""
Temperature [K] :	     298.16000
Viscosity [cp]  :	       0.89454
Refractive Index:	       1.33000
Wavelength [nm] :	     532.00000
Angle [°]       :	      60.00000
Duration [s]    :	        30
Runs            :	         1
Mode            :	"SINGLE AUTO CH0 "
MeanCR0 [kHz]   :	      34.96486
MeanCR1 [kHz]   :	       0.00000

"Correlation"
  2.00000E-004	  4.56873E-001
  4.00000E-004	  4.78023E-001
  6.00000E-004	  4.80633E-001
  8.00000E-004	  4.98074E-001
  1.00000E-003	  5.01508E-001
  1.20000E-003	  4.89971E-001
  1.40000E-003	  4.76650E-001
  1.60000E-003	  5.15379E-001
  1.80000E-003	  5.18812E-001
  2.00000E-003	  4.87637E-001
  2.20000E-003	  4.79809E-001
  2.40000E-003	  4.79809E-001
  2.60000E-003	  4.83379E-001
  2.80000E-003	  4.90109E-001
  3.00000E-003	  5.09885E-001
  3.20000E-003	  4.95674E-001
  3.60000E-003	  4.95742E-001
  4.00000E-003	  4.85305E-001
  4.40000E-003	  4.75897E-001
  4.80000E-003	  4.63606E-001
  5.20000E-003	  4.69580E-001
  5.60000E-003	  4.84893E-001
  6.00000E-003	  5.03020E-001
  6.40000E-003	  4.92784E-001
  7.20000E-003	  4.78192E-001
  8.00000E-003	  4.70226E-001
  8.80000E-003	  4.56458E-001
  9.60000E-003	  4.60784E-001
  1.04000E-002	  4.71085E-001
  1.12000E-002	  4.50005E-001
  1.20000E-002	  4.60443E-001
  1.28000E-002	  4.49359E-001
  1.44000E-002	  4.49736E-001
  1.60000E-002	  4.24793E-001
  1.76000E-002	  4.31762E-001
  1.92000E-002	  4.24569E-001
  2.08000E-002	  4.25222E-001
  2.24000E-002	  4.16743E-001
  2.40000E-002	  4.09378E-001
  2.56000E-002	  4.04104E-001
  2.88000E-002	  3.95769E-001
  3.20000E-002	  3.96928E-001
  3.52000E-002	  3.80482E-001
  3.84000E-002	  3.72681E-001
  4.16000E-002	  3.58063E-001
  4.48000E-002	  3.52423E-001
  4.80000E-002	  3.45547E-001
  5.12000E-002	  3.40840E-001
  5.76000E-002	  3.23597E-001
  6.40000E-002	  3.05998E-001
  7.04000E-002	  2.94251E-001
  7.68000E-002	  2.77654E-001
  8.32000E-002	  2.61603E-001
  8.96000E-002	  2.54481E-001
  9.60000E-002	  2.37803E-001
  1.02400E-001	  2.28891E-001
  1.15200E-001	  2.04484E-001
  1.28000E-001	  1.90265E-001
  1.40800E-001	  1.71911E-001
  1.53600E-001	  1.54939E-001
  1.66400E-001	  1.39208E-001
  1.79200E-001	  1.31161E-001
  1.92000E-001	  1.14450E-001
  2.04800E-001	  1.05415E-001
  2.30400E-001	  8.94205E-002
  2.56000E-001	  7.37253E-002
  2.81600E-001	  6.00503E-002
  3.07200E-001	  4.94138E-002
  3.32800E-001	  4.24441E-002
  3.58400E-001	  3.80710E-002
  3.84000E-001	  2.73560E-002
  4.09600E-001	  2.52265E-002
  4.60800E-001	  1.95407E-002
  5.12000E-001	  1.37396E-002
  5.63200E-001	  1.00296E-002
  6.14400E-001	  7.89166E-003
  6.65600E-001	  5.82632E-003
  7.16800E-001	  3.48267E-003
  7.68000E-001	  2.73325E-003
  8.19200E-001	  2.41263E-003
  9.21600E-001	  1.55210E-003
  1.02400E+000	 -5.79826E-004
  1.12640E+000	 -5.57501E-005
  1.22880E+000	  6.24712E-004
  1.33120E+000	 -2.43903E-004
  1.43360E+000	  1.74899E-003
  1.53600E+000	  7.76249E-004
  1.63840E+000	 -4.79899E-004
  1.84320E+000	 -5.75087E-004
  2.04800E+000	  9.29446E-004
  2.25280E+000	  4.98554E-004
  2.45760E+000	  3.07599E-005
  2.66240E+000	 -1.34371E-004
  2.86720E+000	 -8.23019E-004
  3.07200E+000	 -2.60738E-004
  3.22560E+000	 -3.46280E-004
  3.63520E+000	  2.21156E-004
  4.04480E+000	 -1.35631E-003
  4.45440E+000	  2.06679E-004
  4.86400E+000	  1.54194E-003
  5.27360E+000	 -7.84808E-004
  5.68320E+000	  4.96061E-004
  6.09280E+000	  1.91187E-003
  6.50240E+000	  7.75561E-004
  7.32160E+000	  1.36567E-003
  8.14080E+000	 -2.42472E-004
  8.96000E+000	  4.03507E-005
  9.77920E+000	 -7.84646E-004
  1.05984E+001	 -1.09910E-003
  1.14176E+001	  3.43009E-004
  1.22368E+001	  1.57169E-004
  1.30560E+001	  5.51476E-004
  1.46944E+001	 -2.10034E-004
  1.63328E+001	 -3.84980E-004
  1.79712E+001	  3.01283E-005
  1.96096E+001	 -4.54555E-004
  2.12480E+001	  1.47868E-003
  2.28864E+001	  1.14959E-003
  2.45248E+001	 -2.77048E-004
  2.61632E+001	 -9.26411E-005
  2.94400E+001	  2.21972E-003
  3.27168E+001	 -3.12244E-004
  3.59936E+001	  6.73003E-005
  3.92704E+001	  1.38665E-004
  4.25472E+001	 -1.86648E-004
  4.58240E+001	  3.51656E-004
  4.91008E+001	  5.69043E-004
  5.23776E+001	  3.73154E-004
  5.89312E+001	  3.05471E-005
  6.54848E+001	  5.64936E-005
  7.20384E+001	  5.51142E-004
  7.85920E+001	  3.53765E-004
  8.51456E+001	  3.95319E-004
  9.16992E+001	  2.40560E-004
  9.82528E+001	 -3.06411E-005
  1.04806E+002	 -3.09600E-005
  1.17914E+002	  4.36309E-004
  1.31021E+002	  3.02966E-004
  1.44128E+002	  2.00064E-004
  1.57235E+002	  8.69530E-005
  1.70342E+002	  1.80153E-004
  1.83450E+002	  4.07429E-004
  1.96557E+002	 -2.22295E-004
  2.09664E+002	  5.64415E-005
  2.35878E+002	  1.76736E-005
  2.62093E+002	  1.19798E-004
  2.88307E+002	  4.64941E-006
  3.14522E+002	  2.08514E-005
  3.40736E+002	  1.52925E-004
  3.66950E+002	  1.49103E-004
  3.93165E+002	  4.43162E-004
  4.19379E+002	  1.32470E-004
  4.71808E+002	  1.43623E-004
  5.24237E+002	  2.43514E-004
  5.76666E+002	 -1.13099E-004
  6.29094E+002	  1.10364E-004
  6.81523E+002	  1.12459E-004
  7.33952E+002	  1.49023E-004
  7.86381E+002	  1.23497E-004
  8.38810E+002	 -1.30390E-004
  9.43667E+002	 -7.80462E-005
  1.04852E+003	 -1.67103E-004
  1.15338E+003	  7.37632E-005
  1.25824E+003	  4.37123E-005
  1.36310E+003	  1.56697E-005
  1.46796E+003	  1.67752E-004
  1.57281E+003	 -5.14785E-005
  1.67767E+003	  1.12589E-004
  1.88739E+003	 -2.55472E-005
  2.09710E+003	 -6.49242E-005
  2.30682E+003	 -1.94311E-004
  2.51653E+003	 -9.47406E-005
  2.72625E+003	 -9.87168E-005
  2.93596E+003	 -2.54224E-004
  3.14568E+003	  4.74942E-005
  3.35539E+003	  3.02905E-005
  3.77482E+003	  8.03992E-005
  4.19425E+003	 -1.46308E-004
  4.61368E+003	 -6.48701E-006
  5.03311E+003	  3.37255E-005
  5.45254E+003	  2.11166E-005
  5.87197E+003	 -1.23193E-004
  6.29140E+003	  1.53920E-005

"Count Rate"
       0.11719	      34.77723
       0.23438	      34.22237
       0.35156	      35.86989
       0.46875	      37.16742
       0.58594	      34.60651
       0.70313	      35.50283
       0.82031	      36.77475
       0.93750	      34.62358
       1.05469	      34.94796
       1.17188	      34.48700
       1.28906	      36.64670
       1.40625	      33.86384
       1.52344	      36.47598
       1.64063	      35.25527
       1.75781	      34.41017
       1.87500	      33.39434
       1.99219	      36.08330
       2.10938	      34.11140
       2.22656	      35.92965
       2.34375	      35.85282
       2.46094	      32.76265
       2.57813	      33.00167
       2.69531	      31.77243
       2.81250	      33.68458
       2.92969	      31.98584
       3.04688	      31.38829
       3.16406	      34.11993
       3.28125	      34.33334
       3.39844	      34.68333
       3.51563	      34.72602
       3.63281	      35.09308
       3.75000	      37.41498
       3.86719	      34.36749
       3.98438	      35.34917
       4.10156	      35.11869
       4.21875	      35.26381
       4.33594	      33.54799
       4.45313	      34.07725
       4.57031	      32.98459
       4.68750	      35.93818
       4.80469	      35.63087
       4.92188	      36.39915
       5.03906	      35.05893
       5.15625	      36.77475
       5.27344	      36.93694
       5.39063	      35.57112
       5.50781	      38.15764
       5.62500	      34.99064
       5.74219	      35.92111
       5.85938	      36.91133
       5.97656	      38.31130
       6.09375	      36.86011
       6.21094	      35.26381
       6.32813	      36.91133
       6.44531	      36.15159
       6.56250	      34.16261
       6.67969	      36.01501
       6.79688	      37.60278
       6.91406	      33.42849
       7.03125	      33.63336
       7.14844	      34.17115
       7.26563	      35.05893
       7.38281	      34.17115
       7.50000	      33.29190
       7.61719	      33.82116
       7.73438	      35.92111
       7.85156	      33.08703
       7.96875	      36.21988
       8.08594	      35.30649
       8.20313	      33.92360
       8.32031	      35.08455
       8.43750	      35.69917
       8.55469	      35.43454
       8.67188	      35.26381
       8.78906	      34.83699
       8.90625	      35.22113
       9.02344	      36.32232
       9.14063	      36.49305
       9.25781	      36.18574
       9.37500	      34.42724
       9.49219	      34.45285
       9.60938	      34.50407
       9.72656	      34.55529
       9.84375	      34.06871
       9.96094	      35.66502
      10.07813	      34.68333
      10.19531	      32.25900
      10.31250	      32.94191
      10.42969	      34.31627
      10.54688	      38.60154
      10.66406	      34.02603
      10.78125	      35.19552
      10.89844	      36.64670
      11.01563	      33.35166
      11.13281	      32.30168
      11.25000	      36.72353
      11.36719	      34.49553
      11.48438	      34.81138
      11.60156	      33.46263
      11.71875	      35.59673
      11.83594	      33.92360
      11.95313	      33.59921
      12.07031	      33.87238
      12.18750	      32.71143
      12.30469	      37.67107
      12.42188	      36.49305
      12.53906	      35.47722
      12.65625	      34.02603
      12.77344	      36.77475
      12.89063	      34.06871
      13.00781	      36.23696
      13.12500	      35.85282
      13.24219	      36.31378
      13.35938	      33.35166
      13.47656	      33.97482
      13.59375	      34.83699
      13.71094	      35.15284
      13.82813	      37.15035
      13.94531	      36.10891
      14.06250	      33.53946
      14.17969	      33.62482
      14.29688	      35.45161
      14.41406	      37.82472
      14.53125	      37.00523
      14.64844	      36.51866
      14.76563	      36.30525
      14.88281	      32.12242
      15.00000	      36.43329
      15.11719	      36.52719
      15.23438	      35.28088
      15.35156	      34.83699
      15.46875	      35.82721
      15.58594	      34.59797
      15.70313	      34.84552
      15.82031	      36.40768
      15.93750	      35.30649
      16.05469	      37.32961
      16.17188	      33.83823
      16.28906	      37.26132
      16.40625	      35.08455
      16.52344	      35.95525
      16.64063	      31.43951
      16.75781	      32.90776
      16.87500	      33.99189
      16.99219	      34.78577
      17.10938	      35.79306
      17.22656	      36.56134
      17.34375	      34.41870
      17.46094	      35.96379
      17.57813	      34.46992
      17.69531	      36.74060
      17.81250	      34.29066
      17.92969	      32.75411
      18.04688	      33.80408
      18.16406	      32.46387
      18.28125	      34.43578
      18.39844	      35.62234
      18.51563	      33.36020
      18.63281	      34.52968
      18.75000	      37.75643
      18.86719	      35.46868
      18.98438	      34.05164
      19.10156	      37.38083
      19.21875	      34.45285
      19.33594	      33.41995
      19.45313	      35.67355
      19.57031	      33.66750
      19.68750	      36.63816
      19.80469	      34.67480
      19.92188	      33.71019
      20.03906	      37.32108
      20.15625	      35.92111
      20.27344	      33.31751
      20.39063	      34.37602
      20.50781	      36.97108
      20.62500	      35.36625
      20.74219	      36.11745
      20.85938	      35.03333
      20.97656	      35.04186
      21.09375	      36.33939
      21.21094	      36.24549
      21.32813	      35.90404
      21.44531	      34.76870
      21.56250	      32.62606
      21.67969	      33.01020
      21.79688	      34.66626
      21.91406	      35.57112
      22.03125	      35.32356
      22.14844	      33.33458
      22.26563	      34.82845
      22.38281	      36.71499
      22.50000	      36.45037
      22.61719	      35.41746
      22.73438	      36.06623
      22.85156	      33.47970
      22.96875	      35.75038
      23.08594	      32.10535
      23.20313	      34.93943
      23.32031	      33.98335
      23.43750	      35.56258
      23.55469	      34.65773
      23.67188	      35.54551
      23.78906	      34.57236
      23.90625	      34.17969
      24.02344	      34.42724
      24.14063	      34.44432
      24.25781	      35.46868
      24.37500	      34.98211
      24.49219	      36.02355
      24.60938	      33.83823
      24.72656	      35.37478
      24.84375	      33.01020
      24.96094	      35.15284
      25.07813	      36.16866
      25.19531	      34.11140
      25.31250	      33.08703
      25.42969	      34.28212
      25.54688	      35.44307
      25.66406	      33.01020
      25.78125	      34.74309
      25.89844	      36.72353
      26.01563	      36.12598
      26.13281	      35.92111
      26.25000	      36.12598
      26.36719	      32.44680
      26.48438	      32.95045
      26.60156	      34.32481
      26.71875	      37.05645
      26.83594	      35.06747
      26.95313	      35.33210
      27.07031	      35.92965
      27.18750	      36.04062
      27.30469	      35.35771
      27.42188	      34.40163
      27.53906	      33.65043
      27.65625	      37.59424
      27.77344	      33.48824
      27.89063	      34.58090
      28.00781	      34.12847
      28.12500	      34.63211
      28.24219	      34.09432
      28.35938	      35.28942
      28.47656	      36.13452
      28.59375	      33.11264
      28.71094	      31.01269
      28.82813	      37.58570
      28.94531	      32.63460
      29.06250	      32.69436
      29.17969	      33.19800
      29.29688	      33.61629
      29.41406	      34.86260
      29.53125	      35.56258
      29.64844	      35.46014
      29.76563	      32.09681
      29.88281	      34.23944
