ALV-5000/E-WIN Data
Date :	"15.03.18"
Time :	"11:53:26"
Samplename : 	""
Temperature [K] :	     298.16000
Viscosity [cp]  :	       0.89454
Refractive Index:	       1.33000
Wavelength [nm] :	     532.00000
Angle [°]       :	      60.00000
Duration [s]    :	        30
Runs            :	         1
Mode            :	"SINGLE AUTO CH0 "
MeanCR0 [kHz]   :	      18.59212
MeanCR1 [kHz]   :	       0.00000

"Correlation"
  2.00000E-004	  6.61193E-001
  4.00000E-004	  5.81048E-001
  6.00000E-004	  5.68419E-001
  8.00000E-004	  5.63076E-001
  1.00000E-003	  5.92706E-001
  1.20000E-003	  5.52390E-001
  1.40000E-003	  5.16932E-001
  1.60000E-003	  5.68419E-001
  1.80000E-003	  5.31504E-001
  2.00000E-003	  5.20818E-001
  2.20000E-003	  5.53362E-001
  2.40000E-003	  5.25189E-001
  2.60000E-003	  5.89306E-001
  2.80000E-003	  5.33932E-001
  3.00000E-003	  5.00903E-001
  3.20000E-003	  5.50188E-001
  3.60000E-003	  5.37073E-001
  4.00000E-003	  4.94087E-001
  4.40000E-003	  5.41930E-001
  4.80000E-003	  5.29301E-001
  5.20000E-003	  5.41930E-001
  5.60000E-003	  5.07201E-001
  6.00000E-003	  5.14001E-001
  6.40000E-003	  5.26509E-001
  7.20000E-003	  5.22258E-001
  8.00000E-003	  5.25780E-001
  8.80000E-003	  5.31002E-001
  9.60000E-003	  5.31727E-001
  1.04000E-002	  5.21163E-001
  1.12000E-002	  5.09748E-001
  1.20000E-002	  5.03070E-001
  1.28000E-002	  5.08471E-001
  1.44000E-002	  4.93049E-001
  1.60000E-002	  5.03553E-001
  1.76000E-002	  4.73863E-001
  1.92000E-002	  5.12174E-001
  2.08000E-002	  4.77992E-001
  2.24000E-002	  4.93595E-001
  2.40000E-002	  4.90317E-001
  2.56000E-002	  4.95343E-001
  2.88000E-002	  4.75185E-001
  3.20000E-002	  4.68173E-001
  3.52000E-002	  4.61798E-001
  3.84000E-002	  4.58458E-001
  4.16000E-002	  4.46315E-001
  4.48000E-002	  4.49716E-001
  4.80000E-002	  4.37815E-001
  5.12000E-002	  4.35341E-001
  5.76000E-002	  4.15275E-001
  6.40000E-002	  4.13059E-001
  7.04000E-002	  4.00934E-001
  7.68000E-002	  3.92252E-001
  8.32000E-002	  3.74280E-001
  8.96000E-002	  3.61924E-001
  9.60000E-002	  3.57599E-001
  1.02400E-001	  3.39829E-001
  1.15200E-001	  3.24870E-001
  1.28000E-001	  3.10455E-001
  1.40800E-001	  2.90479E-001
  1.53600E-001	  2.77395E-001
  1.66400E-001	  2.61958E-001
  1.79200E-001	  2.52031E-001
  1.92000E-001	  2.39355E-001
  2.04800E-001	  2.25083E-001
  2.30400E-001	  2.03468E-001
  2.56000E-001	  1.79086E-001
  2.81600E-001	  1.68651E-001
  3.07200E-001	  1.50839E-001
  3.32800E-001	  1.36092E-001
  3.58400E-001	  1.23495E-001
  3.84000E-001	  1.07706E-001
  4.09600E-001	  9.86303E-002
  4.60800E-001	  8.00880E-002
  5.12000E-001	  6.65620E-002
  5.63200E-001	  5.51799E-002
  6.14400E-001	  4.37087E-002
  6.65600E-001	  3.87111E-002
  7.16800E-001	  2.73272E-002
  7.68000E-001	  2.19806E-002
  8.19200E-001	  1.81268E-002
  9.21600E-001	  1.50725E-002
  1.02400E+000	  9.46673E-003
  1.12640E+000	  7.12205E-003
  1.22880E+000	  5.78660E-003
  1.33120E+000	  2.76787E-003
  1.43360E+000	  4.40368E-003
  1.53600E+000	  4.96934E-003
  1.63840E+000	  4.31838E-003
  1.84320E+000	  1.46059E-003
  2.04800E+000	 -4.07710E-004
  2.25280E+000	  5.10641E-004
  2.45760E+000	  9.73154E-004
  2.66240E+000	  5.46618E-004
  2.86720E+000	  2.28274E-003
  3.07200E+000	  1.96481E-003
  3.22560E+000	  3.91912E-003
  3.63520E+000	  2.40192E-003
  4.04480E+000	  1.14577E-003
  4.45440E+000	  2.54328E-003
  4.86400E+000	 -3.70030E-004
  5.27360E+000	  8.22692E-004
  5.68320E+000	 -8.02475E-004
  6.09280E+000	  2.79014E-004
  6.50240E+000	  1.33271E-003
  7.32160E+000	 -1.23885E-003
  8.14080E+000	  1.45966E-003
  8.96000E+000	  1.44410E-003
  9.77920E+000	  6.29198E-005
  1.05984E+001	 -7.59116E-004
  1.14176E+001	  1.60112E-003
  1.22368E+001	  8.06954E-004
  1.30560E+001	  3.06851E-004
  1.46944E+001	  1.04649E-003
  1.63328E+001	  2.06365E-003
  1.79712E+001	  3.44860E-004
  1.96096E+001	  1.10044E-003
  2.12480E+001	  6.02040E-004
  2.28864E+001	 -1.60648E-003
  2.45248E+001	  4.65177E-004
  2.61632E+001	 -5.51396E-004
  2.94400E+001	  1.40174E-003
  3.27168E+001	 -1.28314E-003
  3.59936E+001	 -7.08793E-004
  3.92704E+001	  3.57826E-004
  4.25472E+001	  5.57342E-004
  4.58240E+001	  1.47223E-004
  4.91008E+001	  3.63898E-004
  5.23776E+001	  1.07800E-003
  5.89312E+001	 -1.13255E-004
  6.54848E+001	  7.12950E-004
  7.20384E+001	  4.06617E-004
  7.85920E+001	 -5.43235E-004
  8.51456E+001	 -1.65976E-004
  9.16992E+001	  5.01920E-004
  9.82528E+001	  7.00815E-004
  1.04806E+002	  1.33793E-004
  1.17914E+002	  4.16435E-004
  1.31021E+002	  3.01683E-004
  1.44128E+002	 -2.15468E-004
  1.57235E+002	  1.78042E-004
  1.70342E+002	 -2.40201E-004
  1.83450E+002	  6.23296E-004
  1.96557E+002	  3.58060E-004
  2.09664E+002	 -4.28348E-004
  2.35878E+002	  2.34974E-004
  2.62093E+002	  7.84775E-004
  2.88307E+002	 -2.16737E-004
  3.14522E+002	 -5.44223E-004
  3.40736E+002	 -3.30809E-004
  3.66950E+002	 -2.64676E-004
  3.93165E+002	 -4.56775E-004
  4.19379E+002	 -3.22140E-004
  4.71808E+002	  4.53962E-005
  5.24237E+002	  2.42635E-004
  5.76666E+002	  1.15677E-004
  6.29094E+002	  2.06958E-004
  6.81523E+002	 -2.39447E-004
  7.33952E+002	  1.44681E-004
  7.86381E+002	 -3.01891E-005
  8.38810E+002	 -1.60185E-004
  9.43667E+002	 -1.21415E-004
  1.04852E+003	 -2.31978E-004
  1.15338E+003	 -3.42257E-004
  1.25824E+003	 -9.53686E-005
  1.36310E+003	  2.64900E-004
  1.46796E+003	 -1.54524E-004
  1.57281E+003	 -2.47480E-005
  1.67767E+003	 -4.18380E-005
  1.88739E+003	 -2.57286E-004
  2.09710E+003	  1.35971E-005
  2.30682E+003	 -1.34764E-004
  2.51653E+003	  1.19597E-004
  2.72625E+003	 -3.12546E-004
  2.93596E+003	 -1.71332E-004
  3.14568E+003	  1.04414E-004
  3.35539E+003	  1.76510E-004
  3.77482E+003	 -4.39398E-005
  4.19425E+003	  1.52367E-004
  4.61368E+003	 -6.32882E-005
  5.03311E+003	 -6.51434E-005
  5.45254E+003	  5.82205E-005
  5.87197E+003	  1.45558E-005
  6.29140E+003	 -2.13416E-004

"Count Rate"
       0.11719	      19.21540
       0.23438	      20.27391
       0.35156	      18.82273
       0.46875	      18.48981
       0.58594	      20.22270
       0.70313	      18.14836
       0.82031	      18.37884
       0.93750	      17.39715
       1.05469	      19.87271
       1.17188	      18.31908
       1.28906	      19.17272
       1.40625	      17.99470
       1.52344	      17.27764
       1.64063	      20.11172
       1.75781	      19.07882
       1.87500	      17.75568
       1.99219	      18.95078
       2.10938	      17.90080
       2.22656	      18.05445
       2.34375	      17.57642
       2.46094	      17.82397
       2.57813	      18.39591
       2.69531	      17.86666
       2.81250	      18.57517
       2.92969	      21.26414
       3.04688	      19.21540
       3.16406	      17.67032
       3.28125	      17.55935
       3.39844	      16.62034
       3.51563	      17.86666
       3.63281	      20.77756
       3.75000	      18.19957
       3.86719	      19.02760
       3.98438	      17.55081
       4.10156	      19.64222
       4.21875	      21.12755
       4.33594	      20.04343
       4.45313	      19.71051
       4.57031	      20.02636
       4.68750	      18.34469
       4.80469	      17.38008
       4.92188	      18.02031
       5.03906	      18.31908
       5.15625	      19.53125
       5.27344	      19.07029
       5.39063	      18.88248
       5.50781	      17.28618
       5.62500	      18.50688
       5.74219	      18.12275
       5.85938	      17.24350
       5.97656	      17.96909
       6.09375	      18.74590
       6.21094	      18.05445
       6.32813	      18.78005
       6.44531	      17.53374
       6.56250	      17.74714
       6.67969	      18.02031
       6.79688	      20.04343
       6.91406	      17.61056
       7.03125	      19.38613
       7.14844	      17.57642
       7.26563	      18.36176
       7.38281	      18.85687
       7.50000	      18.91663
       7.61719	      21.07634
       7.73438	      18.48981
       7.85156	      16.95326
       7.96875	      17.44837
       8.08594	      19.00199
       8.20313	      18.95078
       8.32031	      18.25079
       8.43750	      18.72883
       8.55469	      19.06175
       8.67188	      19.87271
       8.78906	      18.16543
       8.90625	      18.47274
       9.02344	      17.48252
       9.14063	      18.66054
       9.25781	      20.84585
       9.37500	      17.75568
       9.49219	      19.72759
       9.60938	      19.82149
       9.72656	      19.48003
       9.84375	      17.93495
       9.96094	      18.48981
      10.07813	      19.65076
      10.19531	      17.01302
      10.31250	      18.44713
      10.42969	      18.50688
      10.54688	      18.60932
      10.66406	      20.33367
      10.78125	      17.51666
      10.89844	      17.67885
      11.01563	      18.27640
      11.13281	      21.00805
      11.25000	      17.96909
      11.36719	      18.86541
      11.48438	      18.35323
      11.60156	      18.04592
      11.71875	      19.69344
      11.83594	      17.63617
      11.95313	      16.84229
      12.07031	      18.95078
      12.18750	      19.94953
      12.30469	      20.47025
      12.42188	      19.49710
      12.53906	      20.11172
      12.65625	      19.67637
      12.77344	      18.49835
      12.89063	      19.56540
      13.00781	      20.62391
      13.12500	      19.54832
      13.24219	      17.29472
      13.35938	      17.41423
      13.47656	      17.75568
      13.59375	      15.75817
      13.71094	      17.85812
      13.82813	      17.26057
      13.94531	      18.55810
      14.06250	      17.55081
      14.17969	      17.53374
      14.29688	      16.95326
      14.41406	      18.78858
      14.53125	      21.05073
      14.64844	      18.49835
      14.76563	      18.61786
      14.88281	      18.76298
      15.00000	      17.34594
      15.11719	      19.19833
      15.23438	      17.73007
      15.35156	      18.67761
      15.46875	      18.80566
      15.58594	      17.12399
      15.70313	      19.93246
      15.82031	      18.95078
      15.93750	      19.24955
      16.05469	      18.19957
      16.17188	      19.20687
      16.28906	      19.07029
      16.40625	      18.03738
      16.52344	      22.14338
      16.64063	      19.43735
      16.75781	      19.03614
      16.87500	      16.89351
      16.99219	      18.15689
      17.10938	      19.59954
      17.22656	      19.59101
      17.34375	      18.89956
      17.46094	      18.40445
      17.57813	      17.25204
      17.69531	      19.42881
      17.81250	      18.47274
      17.92969	      18.84834
      18.04688	      18.01177
      18.16406	      18.51542
      18.28125	      18.94224
      18.39844	      18.37884
      18.51563	      18.02885
      18.63281	      17.96909
      18.75000	      19.83002
      18.86719	      18.79712
      18.98438	      17.65324
      19.10156	      18.69468
      19.21875	      17.88373
      19.33594	      17.92641
      19.45313	      17.20935
      19.57031	      18.38737
      19.68750	      18.14836
      19.80469	      20.15441
      19.92188	      18.56664
      20.03906	      18.41298
      20.15625	      18.41298
      20.27344	      18.60078
      20.39063	      19.23248
      20.50781	      17.92641
      20.62500	      17.26057
      20.74219	      19.18126
      20.85938	      19.56540
      20.97656	      19.04468
      21.09375	      17.76422
      21.21094	      19.07029
      21.32813	      18.43859
      21.44531	      17.92641
      21.56250	      17.49105
      21.67969	      18.70322
      21.79688	      18.76298
      21.91406	      17.75568
      22.03125	      18.15689
      22.14844	      18.92517
      22.26563	      19.42881
      22.38281	      18.03738
      22.50000	      17.76422
      22.61719	      17.20082
      22.73438	      17.35447
      22.85156	      18.40445
      22.96875	      19.48857
      23.08594	      18.91663
      23.20313	      18.85687
      23.32031	      20.22270
      23.43750	      18.76298
      23.55469	      18.95078
      23.67188	      17.71300
      23.78906	      18.32762
      23.90625	      18.27640
      24.02344	      19.88978
      24.14063	      17.62764
      24.25781	      19.48857
      24.37500	      18.66054
      24.49219	      19.58247
      24.60938	      19.00199
      24.72656	      18.06299
      24.84375	      19.49710
      24.96094	      17.27764
      25.07813	      19.48003
      25.19531	      16.93619
      25.31250	      17.23496
      25.42969	      19.55686
      25.54688	      18.26786
      25.66406	      18.04592
      25.78125	      19.48857
      25.89844	      18.11421
      26.01563	      18.59225
      26.13281	      16.83375
      26.25000	      17.48252
      26.36719	      19.65930
      26.48438	      19.68490
      26.60156	      18.86541
      26.71875	      18.81419
      26.83594	      18.37030
      26.95313	      18.71176
      27.07031	      19.70198
      27.18750	      18.60932
      27.30469	      20.08611
      27.42188	      17.93495
      27.53906	      17.51666
      27.65625	      18.71176
      27.77344	      18.52396
      27.89063	      17.67032
      28.00781	      19.20687
      28.12500	      18.19104
      28.24219	      18.83127
      28.35938	      19.42881
      28.47656	      17.57642
      28.59375	      19.37759
      28.71094	      19.01907
      28.82813	      17.49105
      28.94531	      17.32033
      29.06250	      18.54103
      29.17969	      17.82397
      29.29688	      20.21416
      29.41406	      18.08860
      29.53125	      19.98368
      29.64844	      14.88746
      29.76563	      18.61786
      29.88281	      19.07029
